Temperature Weighting Function for Channel TLT
Surface Type: land
--------------------------------------------------------
Surface Weight                                  0.15104
--------------------------------------------------------      
level      h(m)    T(K)      P(pa)    PV(pa)     Weight
--------------------------------------------------------
   0       0.00    288.15 101325.00 1193.6130   0.12104
   1     300.00    286.20  97704.60  977.2475   0.12234
   2     600.00    284.25  94213.55  800.1025   0.12372
   3     900.00    282.30  90847.25  655.0686   0.12507
   4    1200.00    280.35  87601.23  536.3248   0.12619
   5    1500.00    278.40  84471.19  439.1056   0.12698
   6    1800.00    276.45  81452.98  359.5092   0.12731
   7    2100.00    274.50  78497.20  294.3413   0.12703
   8    2400.00    272.56  75561.19  240.9863   0.12592
   9    2700.00    270.61  72735.00  197.3029   0.12422
  10    3000.00    268.66  70014.51  161.5379   0.12192
  11    3300.00    266.71  67395.77  132.2561   0.11903
  12    3600.00    264.76  64874.99  108.2821   0.11563
  13    3900.00    262.82  62448.49   88.6539   0.11169
  14    4200.00    260.87  60036.17   72.5837   0.10712
  15    4500.00    258.92  57680.26   59.4265   0.10209
  16    4800.00    256.97  55416.80   48.6543   0.09676
  17    5100.00    255.03  53242.16   39.8348   0.09119
  18    5400.00    253.08  51152.86   32.6139   0.08551
  19    5700.00    251.13  49145.55   26.7020   0.07974
  20    6000.00    249.19  47217.00   21.8618   0.07394
  21    6300.00    247.24  45268.32   17.8989   0.06801
  22    6600.00    245.30  43400.07   14.6544   0.06220
  23    6900.00    243.35  41608.92   11.9980   0.05657
  24    7200.00    241.40  39891.69    9.8231   0.05118
  25    7500.00    239.46  38245.33    8.0425   0.04605
  26    7800.00    237.51  36666.91    6.5846   0.04118
  27    8100.00    235.57  35132.69    5.3910   0.03660
  28    8400.00    233.62  33622.54    4.4138   0.03222
  29    8700.00    231.68  32177.29    3.6137   0.02820
  30    9000.00    229.73  30794.17    2.9587   0.02451
  31    9300.00    227.79  29470.50    2.4224   0.02116
  32    9600.00    225.84  28203.73    1.9833   0.01809
  33    9900.00    223.90  26991.41    1.6238   0.01533
  34   10200.00    222.59  25772.51    1.3294   0.01283
  35   10500.00    221.60  24580.67    1.0884   0.01056
  36   10800.00    220.61  23443.96    0.8911   0.00857
  37   11100.00    219.62  22359.80    0.7296   0.00685
  38   11400.00    218.63  21325.79    0.5973   0.00538
  39   11700.00    217.64  20339.59    0.4891   0.00409
  40   12000.00    216.65  19399.00    0.4004   0.00298
  41   12300.00    216.65  18506.23    0.3278   0.00206
  42   12600.00    216.65  17654.54    0.2684   0.00127
  43   12900.00    216.65  16842.05    0.2198   0.00063
  44   13200.00    216.65  16066.96    0.1799   0.00009
  45   13500.00    216.65  15327.53    0.1473  -0.00037
  46   13800.00    216.65  14622.13    0.1206  -0.00075
  47   14100.00    216.65  13949.30    0.0987  -0.00102
  48   14400.00    216.65  13307.63    0.0808  -0.00126
  49   14700.00    216.65  12695.47    0.0662  -0.00143
  50   15000.00    216.65  12111.48    0.0542  -0.00156
  51   15300.00    216.65  11554.34    0.0444  -0.00164
  52   15600.00    216.65  11022.84    0.0363  -0.00170
  53   15900.00    216.65  10515.78    0.0297  -0.00174
  54   16200.00    216.65  10032.38    0.0243  -0.00174
  55   16500.00    216.65   9571.35    0.0199  -0.00171
  56   16800.00    216.65   9131.51    0.0163  -0.00168
  57   17100.00    216.65   8711.88    0.0134  -0.00166
  58   17400.00    216.65   8311.54    0.0109  -0.00161
  59   17700.00    216.65   7929.59    0.0090  -0.00156
  60   18000.00    216.65   7565.20    0.0073  -0.00148
  61   18300.00    216.65   7217.68    0.0060  -0.00141
  62   18600.00    216.65   6886.13    0.0049  -0.00135
  63   18900.00    216.65   6569.81    0.0040  -0.00129
  64   19200.00    216.65   6268.02    0.0033  -0.00120
  65   19500.00    216.65   5980.09    0.0027  -0.00113
  66   19800.00    216.65   5705.39    0.0022  -0.00108
  67   20100.00    216.75   5443.72    0.0018  -0.00100
  68   20400.00    217.03   5194.86    0.0015  -0.00093
  69   20700.00    217.32   4957.37    0.0012  -0.00088
  70   21000.00    217.61   4730.73    0.0010  -0.00083
  71   21300.00    217.90   4514.46    0.0008  -0.00077
  72   21600.00    218.19   4308.08    0.0007  -0.00071
  73   21900.00    218.48   4111.13    0.0005  -0.00066
  74   22200.00    218.77   3924.36    0.0004  -0.00060
  75   22500.00    219.07   3746.63    0.0004  -0.00057
  76   22800.00    219.37   3576.96    0.0003  -0.00052
  77   23100.00    219.67   3414.97    0.0002  -0.00047
  78   23400.00    219.96   3260.31    0.0002  -0.00044
  79   23700.00    220.26   3112.66    0.0002  -0.00040
  80   24000.00    220.56   2971.70    0.0001  -0.00038
  81   24300.00    220.86   2838.38    0.0001  -0.00033
  82   24600.00    221.16   2711.04    0.0001  -0.00030
  83   24900.00    221.45   2589.41    0.0001  -0.00029
  84   25200.00    221.75   2473.24    0.0001  -0.00027
  85   25500.00    222.05   2362.28    0.0000  -0.00025
  86   25800.00    222.35   2256.30    0.0000  -0.00022
  87   26100.00    222.64   2155.39    0.0000  -0.00021
  88   26400.00    222.94   2059.58    0.0000  -0.00018
  89   26700.00    223.24   1968.04    0.0000  -0.00019
  90   27000.00    223.54   1880.56    0.0000  -0.00016
  91   27300.00    223.83   1796.97    0.0000  -0.00013
  92   27600.00    224.13   1717.10    0.0000  -0.00011
  93   27900.00    224.43   1640.78    0.0000  -0.00012
  94   28200.00    224.73   1568.31    0.0000  -0.00012
  95   28500.00    225.02   1499.25    0.0000  -0.00010
  96   28800.00    225.32   1433.24    0.0000  -0.00008
  97   29100.00    225.62   1370.13    0.0000  -0.00009
  98   29400.00    225.91   1309.80    0.0000  -0.00007
  99   29700.00    226.21   1252.13    0.0000  -0.00008
 100   30000.00    226.51   1197.00    0.0000  -0.00007
 101   30300.00    227.11   1145.43    0.0000  -0.00007
 102   30600.00    227.71   1096.09    0.0000  -0.00007
 103   30900.00    228.31   1048.87    0.0000  -0.00005
 104   31200.00    228.91   1003.69    0.0000  -0.00006
 105   31500.00    229.51    960.45    0.0000  -0.00004
 106   31800.00    230.11    919.07    0.0000  -0.00003
 107   32100.00    230.71    879.48    0.0000  -0.00003
 108   32400.00    231.31    841.59    0.0000  -0.00004
 109   32700.00    231.91    805.34    0.0000  -0.00003
 110   33000.00    232.51    770.64    0.0000  -0.00004
 111   33300.00    233.11    737.44    0.0000  -0.00004
 112   33600.00    233.71    705.67    0.0000  -0.00003
 113   33900.00    234.31    675.27    0.0000  -0.00004
 114   34200.00    234.91    646.18    0.0000  -0.00001
 115   34500.00    235.51    618.35    0.0000  -0.00001
 116   34800.00    236.11    591.71    0.0000  -0.00001
 117   35100.00    236.79    566.67    0.0000  -0.00002
 118   35400.00    237.62    543.57    0.0000  -0.00001
 119   35700.00    238.45    521.41    0.0000   0.00000
 120   36000.00    239.28    500.16    0.0000  -0.00002
 121   36300.00    240.11    479.77    0.0000  -0.00001
 122   36600.00    240.94    460.21    0.0000  -0.00001
 123   36900.00    241.77    441.45    0.0000   0.00000
 124   37200.00    242.60    423.45    0.0000  -0.00000
 125   37500.00    243.43    406.19    0.0000  -0.00001
 126   37800.00    244.26    389.63    0.0000   0.00000
 127   38100.00    245.09    373.74    0.0000  -0.00002
 128   38400.00    245.92    358.51    0.0000  -0.00002
 129   38700.00    246.75    343.89    0.0000   0.00002
 130   39000.00    247.58    329.87    0.0000  -0.00000
 131   39300.00    248.41    316.42    0.0000  -0.00002
 132   39600.00    249.24    303.53    0.0000  -0.00001
 133   39900.00    250.07    291.15    0.0000   0.00001
 134   40200.00    250.90    279.71    0.0000   0.00001
 135   40500.00    251.73    268.93    0.0000   0.00001
 136   40800.00    252.56    258.56    0.0000   0.00000
 137   41100.00    253.39    248.59    0.0000  -0.00002
 138   41400.00    254.22    239.00    0.0000  -0.00002
 139   41700.00    255.05    229.79    0.0000  -0.00001
 140   42000.00    255.88    220.93    0.0000  -0.00001
 141   42300.00    256.70    212.41    0.0000  -0.00001
 142   42600.00    257.53    204.22    0.0000  -0.00001
 143   42900.00    258.36    196.34    0.0000   0.00001
 144   43200.00    259.19    188.77    0.0000   0.00001
 145   43500.00    260.02    181.49    0.0000   0.00001
 146   43800.00    260.85    174.50    0.0000   0.00001
 147   44100.00    261.68    167.77    0.0000   0.00001
 148   44400.00    262.51    161.30    0.0000   0.00001
 149   44700.00    263.34    155.08    0.0000   0.00001
 150   45000.00    264.16    149.10    0.0000  -0.00001
 151   45300.00    264.55    143.61    0.0000  -0.00001
 152   45600.00    264.94    138.32    0.0000  -0.00003
 153   45900.00    265.33    133.23    0.0000  -0.00003
 154   46200.00    265.72    128.32    0.0000  -0.00001
 155   46500.00    266.11    123.60    0.0000  -0.00001
 156   46800.00    266.50    119.04    0.0000  -0.00001
 157   47100.00    266.89    114.66    0.0000   0.00000
 158   47400.00    267.28    110.44    0.0000   0.00000
 159   47700.00    267.67    106.37    0.0000   0.00000
 160   48000.00    268.06    102.45    0.0000   0.00000
 161   48300.00    268.44     98.68    0.0000   0.00000
 162   48600.00    268.83     95.05    0.0000   0.00000
 163   48900.00    269.22     91.55    0.0000   0.00000
 164   49200.00    269.61     88.17    0.0000   0.00000
 165   49500.00    270.00     84.93    0.0000   0.00000
 166   49800.00    270.39     81.80    0.0000   0.00000
 167   50100.00    270.45     78.78    0.0000   0.00000
 168   50400.00    269.86     75.86    0.0000   0.00000
 169   50700.00    269.27     73.05    0.0000   0.00000
 170   51000.00    268.67     70.35    0.0000   0.00000
 171   51300.00    268.08     67.74    0.0000   0.00000
 172   51600.00    267.49     65.23    0.0000   0.00000
 173   51900.00    266.90     62.81    0.0000   0.00000
 174   52200.00    266.30     60.49    0.0000   0.00000
 175   52500.00    265.71     58.25    0.0000   0.00000
 176   52800.00    265.12     56.09    0.0000   0.00000
 177   53100.00    264.53     54.01    0.0000   0.00000
 178   53400.00    263.93     52.01    0.0000   0.00000
 179   53700.00    263.34     50.08    0.0000   0.00000
 180   54000.00    262.75     48.23    0.0000   0.00000
 181   54300.00    262.15     46.44    0.0000   0.00000
 182   54600.00    261.56     44.72    0.0000   0.00000
 183   54900.00    260.97     43.06    0.0000   0.00000
 184   55200.00    260.22     41.42    0.0000   0.00000
 185   55500.00    259.40     39.81    0.0000   0.00000
 186   55800.00    258.57     38.26    0.0000   0.00000
 187   56100.00    257.75     36.77    0.0000   0.00000
 188   56400.00    256.92     35.34    0.0000   0.00000
 189   56700.00    256.10     33.97    0.0000   0.00000
 190   57000.00    255.27     32.65    0.0000   0.00000
 191   57300.00    254.45     31.38    0.0000   0.00000
 192   57600.00    253.62     30.16    0.0000   0.00000
 193   57900.00    252.80     28.98    0.0000   0.00000
 194   58200.00    251.97     27.86    0.0000   0.00000
 195   58500.00    251.15     26.77    0.0000   0.00000
 196   58800.00    250.32     25.73    0.0000   0.00000
 197   59100.00    249.50     24.73    0.0000   0.00000
 198   59400.00    248.67     23.77    0.0000   0.00000
 199   59700.00    247.85     22.85    0.0000   0.00000
 200   60000.00    247.02     21.96    0.0000   0.00000
 201   60300.00    246.20     21.06    0.0000   0.00000
 202   60600.00    245.37     20.19    0.0000   0.00000
 203   60900.00    244.55     19.37    0.0000   0.00000
 204   61200.00    243.73     18.57    0.0000   0.00000
 205   61500.00    242.90     17.81    0.0000   0.00000
 206   61800.00    242.08     17.08    0.0000   0.00000
 207   62100.00    241.25     16.38    0.0000   0.00000
 208   62400.00    240.43     15.71    0.0000   0.00000
 209   62700.00    239.61     15.06    0.0000   0.00000
 210   63000.00    238.78     14.45    0.0000   0.00000
 211   63300.00    237.96     13.85    0.0000   0.00000
 212   63600.00    237.14     13.29    0.0000   0.00000
 213   63900.00    236.31     12.74    0.0000   0.00000
 214   64200.00    235.49     12.22    0.0000   0.00000
 215   64500.00    234.66     11.72    0.0000   0.00000
 216   64800.00    233.84     11.24    0.0000   0.00000
 217   65100.00    233.02     10.77    0.0000   0.00000
 218   65400.00    232.20     10.30    0.0000   0.00000
 219   65700.00    231.37      9.86    0.0000   0.00000
 220   66000.00    230.55      9.43    0.0000   0.00000
 221   66300.00    229.73      9.02    0.0000   0.00000
 222   66600.00    228.91      8.63    0.0000   0.00000
 223   66900.00    228.08      8.25    0.0000   0.00000
 224   67200.00    227.26      7.90    0.0000   0.00000
 225   67500.00    226.44      7.55    0.0000   0.00000
 226   67800.00    225.62      7.23    0.0000   0.00000
 227   68100.00    224.79      6.91    0.0000   0.00000
 228   68400.00    223.97      6.61    0.0000   0.00000
 229   68700.00    223.15      6.33    0.0000   0.00000
 230   69000.00    222.33      6.05    0.0000   0.00000
 231   69300.00    221.50      5.79    0.0000   0.00000
 232   69600.00    220.68      5.54    0.0000   0.00000
 233   69900.00    219.86      5.30    0.0000   0.00000
 234   70200.00    219.14      5.06    0.0000   0.00000
 235   70500.00    218.47      4.83    0.0000   0.00000
 236   70800.00    217.80      4.61    0.0000   0.00000
 237   71100.00    217.12      4.40    0.0000   0.00000
 238   71400.00    216.45      4.19    0.0000   0.00000
 239   71700.00    215.78      4.00    0.0000   0.00000
 240   72000.00    215.11      3.82    0.0000   0.00000
 241   72300.00    214.44      3.64    0.0000   0.00000
 242   72600.00    213.77      3.48    0.0000   0.00000
 243   72900.00    213.10      3.32    0.0000   0.00000
 244   73200.00    212.43      3.16    0.0000   0.00000
 245   73500.00    211.75      3.02    0.0000   0.00000
 246   73800.00    211.08      2.88    0.0000   0.00000
 247   74100.00    210.41      2.75    0.0000   0.00000
 248   74400.00    209.74      2.62    0.0000   0.00000
 249   74700.00    209.07      2.50    0.0000   0.00000
 250   75000.00    208.40      2.39    0.0000   0.00000
 251   75300.00    207.81      2.27    0.0000   0.00000
 252   75600.00    207.23      2.16    0.0000   0.00000
 253   75900.00    206.64      2.06    0.0000   0.00000
 254   76200.00    206.06      1.96    0.0000   0.00000
 255   76500.00    205.47      1.87    0.0000   0.00000
 256   76800.00    204.89      1.78    0.0000   0.00000
 257   77100.00    204.30      1.69    0.0000   0.00000
 258   77400.00    203.71      1.61    0.0000   0.00000
 259   77700.00    203.13      1.53    0.0000   0.00000
 260   78000.00    202.54      1.46    0.0000   0.00000
 261   78300.00    201.96      1.39    0.0000   0.00000
 262   78600.00    201.37      1.32    0.0000   0.00000
 263   78900.00    200.79      1.26    0.0000   0.00000
 264   79200.00    200.20      1.20    0.0000   0.00000
 265   79500.00    199.62      1.14    0.0000   0.00000
 266   79800.00    199.03      1.09    0.0000   0.00000
 267   80100.00    198.44      1.03    0.0000   0.00000
 268   80400.00    197.86      0.98    0.0000   0.00000
 269   80700.00    197.27      0.93    0.0000   0.00000
 270   81000.00    196.69      0.89    0.0000   0.00000
 271   81300.00    196.11      0.84    0.0000   0.00000
 272   81600.00    195.52      0.80    0.0000   0.00000
 273   81900.00    194.94      0.76    0.0000   0.00000
 274   82200.00    194.35      0.72    0.0000   0.00000
 275   82500.00    193.77      0.68    0.0000   0.00000
 276   82800.00    193.18      0.65    0.0000   0.00000
 277   83100.00    192.60      0.62    0.0000   0.00000
 278   83400.00    192.01      0.59    0.0000   0.00000
 279   83700.00    191.43      0.56    0.0000   0.00000
 280   84000.00    190.84      0.53    0.0000   0.00000
 281   84300.00    190.26      0.50    0.0000   0.00000
 282   84600.00    189.67      0.48    0.0000   0.00000
 283   84900.00    189.09      0.45    0.0000   0.00000
 284   85200.00    188.81      0.43    0.0000   0.00000
 285   85500.00    188.69      0.41    0.0000   0.00000
 286   85800.00    188.57      0.39    0.0000   0.00000
 287   86100.00    188.45      0.37    0.0000   0.00000
 288   86400.00    188.33      0.35    0.0000   0.00000
 289   86700.00    188.21      0.33    0.0000   0.00000
 290   87000.00    188.08      0.31    0.0000   0.00000
 291   87300.00    187.96      0.30    0.0000   0.00000
 292   87600.00    187.84      0.28    0.0000   0.00000
 293   87900.00    187.72      0.27    0.0000   0.00000
 294   88200.00    187.60      0.25    0.0000   0.00000
 295   88500.00    187.48      0.24    0.0000   0.00000
 296   88800.00    187.36      0.23    0.0000   0.00000
 297   89100.00    187.23      0.22    0.0000   0.00000
 298   89400.00    187.11      0.20    0.0000   0.00000
 299   89700.00    186.99      0.19    0.0000   0.00000
